#Wavelength cs_C Dcs_C (angstrom cm2 cm2)
2275    0       0
2225    0       0
2175    0       0
2125    0       0
2075    0       0
2025    0       0
1975    0       0
1925    0       0
1875    0       0
1825    0       0
1775    0       0
1725    0       0
1675    0       0
1625    0       0
1575    0       0
1525    0       0
1475    0       0
1425    0       0
1375    0       0
1325    0       0
1275    0       0
1225    0       0
1215.7  0       0
1175    0       0
1125    0       0
1075    0       0
1031.9  0       0
1025.7  0       0
1025    0       0
999.99  0       0
999.96  0       0
999.93  0       0
999.9   0       0
999.87  0       0
999.84  0       0
999.81  0       0
999.78  0       0
999.75  0       0
999.72  0       0
999.69  0       0
999.66  0       0
999.63  0       0
999.6   0       0
999.57  0       0
999.54  0       0
999.51  0       0
999.48  0       0
999.45  0       0
999.42  0       0
999.39  0       0
999.36  0       0
999.33  0       0
999.3   0       0
999.27  0       0
999.24  0       0
999.21  0       0
999.18  0       0
999.15  0       0
999.12  0       0
999.09  0       0
999.06  0       0
999.03  0       0
999     0       0
998.97  0       0
998.94  0       0
998.91  0       0
998.88  0       0
998.85  0       0
998.82  0       0
998.79  0       0
998.76  0       0
998.73  0       0
998.7   0       0
998.67  0       0
998.64  0       0
998.61  0       0
998.58  0       0
998.55  0       0
998.52  0       0
998.49  0       0
998.46  0       0
998.43  0       0
998.4   0       0
998.37  0       0
998.34  0       0
998.31  0       0
998.28  0       0
998.25  0       0
998.22  0       0
998.19  0       0
998.16  0       0
998.13  0       0
998.1   0       0
998.07  0       0
998.04  0       0
998.01  0       0
997.98  0       0
997.95  0       0
997.92  0       0
997.89  0       0
997.86  0       0
997.83  0       0
997.8   0       0
997.77  0       0
997.74  0       0
997.71  0       0
997.68  0       0
997.65  0       0
997.62  0       0
997.59  0       0
997.56  0       0
997.53  0       0
997.5   0       0
997.47  0       0
997.44  0       0
997.41  0       0
997.38  0       0
997.35  0       0
997.32  0       0
997.29  0       0
997.26  0       0
997.23  0       0
997.2   0       0
997.17  0       0
997.14  0       0
997.11  0       0
997.08  0       0
997.05  0       0
997.02  0       0
996.99  0       0
996.96  0       0
996.93  0       0
996.9   0       0
996.87  0       0
996.84  0       0
996.81  0       0
996.78  0       0
996.75  0       0
996.72  0       0
996.69  0       0
996.66  0       0
996.63  0       0
996.6   0       0
996.57  0       0
996.54  0       0
996.51  0       0
996.48  0       0
996.45  0       0
996.42  0       0
996.39  0       0
996.36  0       0
996.33  0       0
996.3   0       0
996.27  0       0
996.24  0       0
996.21  0       0
996.18  0       0
996.15  0       0
996.12  0       0
996.09  0       0
996.06  0       0
996.03  0       0
996     0       0
995.97  0       0
995.94  0       0
995.91  0       0
995.88  0       0
995.85  0       0
995.82  0       0
995.79  0       0
995.76  0       0
995.73  0       0
995.7   0       0
995.67  0       0
995.64  0       0
995.61  0       0
995.58  0       0
995.55  0       0
995.52  0       0
995.49  0       0
995.46  0       0
995.43  0       0
995.4   0       0
995.37  0       0
995.34  0       0
995.31  0       0
995.28  0       0
995.25  0       0
995.22  0       0
995.19  0       0
995.16  0       0
995.13  0       0
995.1   0       0
995.07  0       0
995.04  0       0
995.01  0       0
994.98  0       0
994.95  0       0
994.92  0       0
994.89  0       0
994.86  0       0
994.83  0       0
994.8   0       0
994.77  0       0
994.74  0       0
994.71  0       0
994.68  0       0
994.65  0       0
994.62  0       0
994.59  0       0
994.56  0       0
994.53  0       0
994.5   0       0
994.47  0       0
994.44  0       0
994.41  0       0
994.38  0       0
994.35  0       0
994.32  0       0
994.29  0       0
994.26  0       0
994.23  0       0
994.2   0       0
994.17  0       0
994.14  0       0
994.11  0       0
994.08  0       0
994.05  0       0
994.02  0       0
993.99  0       0
993.96  0       0
993.93  0       0
993.9   0       0
993.87  0       0
993.84  0       0
993.81  0       0
993.78  0       0
993.75  0       0
993.72  0       0
993.69  0       0
993.66  0       0
993.63  0       0
993.6   0       0
993.57  0       0
993.54  0       0
993.51  0       0
993.48  0       0
993.45  0       0
993.42  0       0
993.39  0       0
993.36  0       0
993.33  0       0
993.3   0       0
993.27  0       0
993.24  0       0
993.21  0       0
993.18  0       0
993.15  0       0
993.12  0       0
993.09  0       0
993.06  0       0
993.03  0       0
993     0       0
992.97  0       0
992.94  0       0
992.91  0       0
992.88  0       0
992.85  0       0
992.82  0       0
992.79  0       0
992.76  0       0
992.73  0       0
992.7   0       0
992.67  0       0
992.64  0       0
992.61  0       0
992.58  0       0
992.55  0       0
992.52  0       0
992.49  0       0
992.46  0       0
992.43  0       0
992.4   0       0
992.37  0       0
992.34  0       0
992.31  0       0
992.28  0       0
992.25  0       0
992.22  0       0
992.19  0       0
992.16  0       0
992.13  0       0
992.1   0       0
992.07  0       0
992.04  0       0
992.01  0       0
991.98  0       0
991.95  0       0
991.92  0       0
991.89  0       0
991.86  0       0
991.83  0       0
991.8   0       0
991.77  0       0
991.74  0       0
991.71  0       0
991.68  0       0
991.65  0       0
991.62  0       0
991.59  0       0
991.56  0       0
991.53  0       0
991.5   0       0
991.47  0       0
991.44  0       0
991.41  0       0
991.38  0       0
991.35  0       0
991.32  0       0
991.29  0       0
991.26  0       0
991.23  0       0
991.2   0       0
991.17  0       0
991.14  0       0
991.11  0       0
991.08  0       0
991.05  0       0
991.02  0       0
990.99  0       0
990.96  0       0
990.93  0       0
990.9   0       0
990.87  0       0
990.84  0       0
990.81  0       0
990.78  0       0
990.75  0       0
990.72  0       0
990.69  0       0
990.66  0       0
990.63  0       0
990.6   0       0
990.57  0       0
990.54  0       0
990.51  0       0
990.48  0       0
990.45  0       0
990.42  0       0
990.39  0       0
990.36  0       0
990.33  0       0
990.3   0       0
990.27  0       0
990.24  0       0
990.21  0       0
990.18  0       0
990.15  0       0
990.12  0       0
990.09  0       0
990.06  0       0
990.03  0       0
990     0       0
989.97  0       0
989.94  0       0
989.91  0       0
989.88  0       0
989.85  0       0
989.82  0       0
989.79  0       0
989.76  0       0
989.73  0       0
989.7   0       0
989.67  0       0
989.64  0       0
989.61  0       0
989.58  0       0
989.55  0       0
989.52  0       0
989.49  0       0
989.46  0       0
989.43  0       0
989.4   0       0
989.37  0       0
989.34  0       0
989.31  0       0
989.28  0       0
989.25  0       0
989.22  0       0
989.19  0       0
989.16  0       0
989.13  0       0
989.1   0       0
989.07  0       0
989.04  0       0
989.01  0       0
988.98  0       0
988.95  0       0
988.92  0       0
988.89  0       0
988.86  0       0
988.83  0       0
988.8   0       0
988.77  0       0
988.74  0       0
988.71  0       0
988.68  0       0
988.65  0       0
988.62  0       0
988.59  0       0
988.56  0       0
988.53  0       0
988.5   0       0
988.47  0       0
988.44  0       0
988.41  0       0
988.38  0       0
988.35  0       0
988.32  0       0
988.29  0       0
988.26  0       0
988.23  0       0
988.2   0       0
988.17  0       0
988.14  0       0
988.11  0       0
988.08  0       0
988.05  0       0
988.02  0       0
987.99  0       0
987.96  0       0
987.93  0       0
987.9   0       0
987.87  0       0
987.84  0       0
987.81  0       0
987.78  0       0
987.75  0       0
987.72  0       0
987.69  0       0
987.66  0       0
987.63  0       0
987.6   0       0
987.57  0       0
987.54  0       0
987.51  0       0
987.48  0       0
987.45  0       0
987.42  0       0
987.39  0       0
987.36  0       0
987.33  0       0
987.3   0       0
987.27  0       0
987.24  0       0
987.21  0       0
987.18  0       0
987.15  0       0
987.12  0       0
987.09  0       0
987.06  0       0
987.03  0       0
987     0       0
986.97  0       0
986.94  0       0
986.91  0       0
986.88  0       0
986.85  0       0
986.82  0       0
986.79  0       0
986.76  0       0
986.73  0       0
986.7   0       0
986.67  0       0
986.64  0       0
986.61  0       0
986.58  0       0
986.55  0       0
986.52  0       0
986.49  0       0
986.46  0       0
986.43  0       0
986.4   0       0
986.37  0       0
986.34  0       0
986.31  0       0
986.28  0       0
986.25  0       0
986.22  0       0
986.19  0       0
986.16  0       0
986.13  0       0
986.1   0       0
986.07  0       0
986.04  0       0
986.01  0       0
985.98  0       0
985.95  0       0
985.92  0       0
985.89  0       0
985.86  0       0
985.83  0       0
985.8   0       0
985.77  0       0
985.74  0       0
985.71  0       0
985.68  0       0
985.65  0       0
985.62  0       0
985.59  0       0
985.56  0       0
985.53  0       0
985.5   0       0
985.47  0       0
985.44  0       0
985.41  0       0
985.38  0       0
985.35  0       0
985.32  0       0
985.29  0       0
985.26  0       0
985.23  0       0
985.2   0       0
985.17  0       0
985.14  0       0
985.11  0       0
985.08  0       0
985.05  0       0
985.02  0       0
984.99  0       0
984.96  0       0
984.93  0       0
984.9   0       0
984.87  0       0
984.84  0       0
984.81  0       0
984.78  0       0
984.75  0       0
984.72  0       0
984.69  0       0
984.66  0       0
984.63  0       0
984.6   0       0
984.57  0       0
984.54  0       0
984.51  0       0
984.48  0       0
984.45  0       0
984.42  0       0
984.39  0       0
984.36  0       0
984.33  0       0
984.3   0       0
984.27  0       0
984.24  0       0
984.21  0       0
984.18  0       0
984.15  0       0
984.12  0       0
984.09  0       0
984.06  0       0
984.03  0       0
984     0       0
983.97  0       0
983.94  0       0
983.91  0       0
983.88  0       0
983.85  0       0
983.82  0       0
983.79  0       0
983.76  0       0
983.73  0       0
983.7   0       0
983.67  0       0
983.64  0       0
983.61  0       0
983.58  0       0
983.55  0       0
983.52  0       0
983.49  0       0
983.46  0       0
983.43  0       0
983.4   0       0
983.37  0       0
983.34  0       0
983.31  0       0
983.28  0       0
983.25  0       0
983.22  0       0
983.19  0       0
983.16  0       0
983.13  0       0
983.1   0       0
983.07  0       0
983.04  0       0
983.01  0       0
982.98  0       0
982.95  0       0
982.92  0       0
982.89  0       0
982.86  0       0
982.83  0       0
982.8   0       0
982.77  0       0
982.74  0       0
982.71  0       0
982.68  0       0
982.65  0       0
982.62  0       0
982.59  0       0
982.56  0       0
982.53  0       0
982.5   0       0
982.47  0       0
982.44  0       0
982.41  0       0
982.38  0       0
982.35  0       0
982.32  0       0
982.29  0       0
982.26  0       0
982.23  0       0
982.2   0       0
982.17  0       0
982.14  0       0
982.11  0       0
982.08  0       0
982.05  0       0
982.02  0       0
981.99  0       0
981.96  0       0
981.93  0       0
981.9   0       0
981.87  0       0
981.84  0       0
981.81  0       0
981.78  0       0
981.75  0       0
981.72  0       0
981.69  0       0
981.66  0       0
981.63  0       0
981.6   0       0
981.57  0       0
981.54  0       0
981.51  0       0
981.48  0       0
981.45  0       0
981.42  0       0
981.39  0       0
981.36  0       0
981.33  0       0
981.3   0       0
981.27  0       0
981.24  0       0
981.21  0       0
981.18  0       0
981.15  0       0
981.12  0       0
981.09  0       0
981.06  0       0
981.03  0       0
981     0       0
980.97  0       0
980.94  0       0
980.91  0       0
980.88  0       0
980.85  0       0
980.82  0       0
980.79  0       0
980.76  0       0
980.73  0       0
980.7   0       0
980.67  0       0
980.64  0       0
980.61  0       0
980.58  0       0
980.55  0       0
980.52  0       0
980.49  0       0
980.46  0       0
980.43  0       0
980.4   0       0
980.37  0       0
980.34  0       0
980.31  0       0
980.28  0       0
980.25  0       0
980.22  0       0
980.19  0       0
980.16  0       0
980.13  0       0
980.1   0       0
980.07  0       0
980.04  0       0
980.01  0       0
979.98  0       0
979.95  0       0
979.92  0       0
979.89  0       0
979.86  0       0
979.83  0       0
979.8   0       0
979.77  0       0
979.74  0       0
979.71  0       0
979.68  0       0
979.65  0       0
979.62  0       0
979.59  0       0
979.56  0       0
979.53  0       0
979.5   0       0
979.47  0       0
979.44  0       0
979.41  0       0
979.38  0       0
979.35  0       0
979.32  0       0
979.29  0       0
979.26  0       0
979.23  0       0
979.2   0       0
979.17  0       0
979.14  0       0
979.11  0       0
979.08  0       0
979.05  0       0
979.02  0       0
978.99  0       0
978.96  0       0
978.93  0       0
978.9   0       0
978.87  0       0
978.84  0       0
978.81  0       0
978.78  0       0
978.75  0       0
978.72  0       0
978.69  0       0
978.66  0       0
978.63  0       0
978.6   0       0
978.57  0       0
978.54  0       0
978.51  0       0
978.48  0       0
978.45  0       0
978.42  0       0
978.39  0       0
978.36  0       0
978.33  0       0
978.3   0       0
978.27  0       0
978.24  0       0
978.21  0       0
978.18  0       0
978.15  0       0
978.12  0       0
978.09  0       0
978.06  0       0
978.03  0       0
978     0       0
977.97  0       0
977.94  0       0
977.91  0       0
977.88  0       0
977.85  0       0
977.82  0       0
977.79  0       0
977.76  0       0
977.73  0       0
977.7   0       0
977.67  0       0
977.64  0       0
977.61  0       0
977.58  0       0
977.55  0       0
977.52  0       0
977.49  0       0
977.46  0       0
977.43  0       0
977.4   0       0
977.37  0       0
977.34  0       0
977.31  0       0
977.28  0       0
977.25  0       0
977.22  0       0
977.19  0       0
977.16  0       0
977.13  0       0
977.1   0       0
977.07  0       0
977.04  0       0
977.01  74      0
976.98  97      0
976.95  2       0
976.92  4       0
976.89  7       0
976.86  9       0
976.83  1       0
976.8   3       0
976.77  6       0
976.74  8       0
976.71          0
976.68  2       0
976.65  5       0
976.62  7       0
976.59  9       0
976.56          0
976.53          0
976.5           0
976.47          0
976.44          0
976.41  0       0
976.38          0
976.35          0
976.32          0
976.29          0
976.26          0
976.23          0
976.2           0
976.17          0
976.14          0
976.11          0
976.08  0       0
976.05          0
976.02          0
975.99          0
975.96          0
975.93          0
975.9           0
975.87  0       0
975.84          0
975.81          0
975.78          0
975.75          0
975.72          0
975.69          0
975.66          0
975.63          0
975.6           0
975.57          0
975.54  0       0
975.51          0
975.48          0
975.45          0
975.42          0
975.39          0
975.36          0
975.33  0       0
975.3           0
975.27          0
975.24          0
975.21          0
975.18          0
975.15          0
975.12          0
975.09          0
975.06          0
975.03          0
975     0       0
974.97  0.0456840
974.94  0.0457680
974.91  0.0458510
974.88  0.0459350
974.85  0.0460190
974.82  0.0461030
974.79          0
974.76  0.0462710
974.73  0.0463540
974.7   0.0464380
974.67  0.0465220
974.64  0.0466060
974.61  0.04669 0
974.58          0
974.55  0.0468570
974.52  0.0469410
974.49  0.0470250
974.46  0.0471090
974.43  0.0471930
974.4   0.0472760
974.37  0.04736 0
974.34  0.0474440
974.31  0.0475280
974.28  0.0476120
974.25  0.0476960
974.22  0.0477790
974.19  0.0478630
974.16  0.0479470
974.13  0.0480310
974.1   0.0481150
974.07  0.0481980
974.04  0.0482820
974.01  0.0483660
973.98  0.04845 0
973.95  0.0485340
973.92          0
973.89  0.0487010
973.86  0.0487850
973.83  0.0488690
973.8   0.0489530
973.77  0.0490370
973.74  0.04912 0
973.71          0
973.68  0.0492880
973.65  0.0493720
973.62  0.0494560
973.59  0.04954 0
973.56  0.0496230
973.53          0
973.5           0
973.47          0
973.44          0
973.41          0
973.38          0
973.35  0       0
973.32          0
973.29          0
973.26          0
973.23          0
973.2           0
973.17          0
973.14          0
973.11          0
973.08          0
973.05          0
973.02          0
972.99          0
972.96  0       0
972.93          0
972.9           0
972.87          0
972.84          0
972.81          0
972.78          0
972.75          0
972.72  0       0
972.69          0
972.66          0
972.63          0
972.6           0
972.57          0
972.54          0
972.51          0
972.48          0
972.45          0
972.42          0
972.39          0
972.36          0
972.33  0       0
972.3           0
972.27          0
972.24          0
972.21          0
972.18          0
972.15          0
972.12          0
972.09          0
972.06          0
972.03          0
972             0
971.97          0
971.94  0       0
971.91          0
971.88          0
971.85          0
971.82          0
971.79          0
971.76          0
971.73          0
971.7   0       0
971.67          0
971.64          0
971.61          0
971.58          0
971.55          0
971.52          0
971.49          0
971.46          0
971.43          0
971.4           0
971.37          0
971.34          0
971.31  0       0
971.28          0
971.25          0
971.22          0
971.19          0
971.16          0
971.13          0
971.1           0
971.07  0       0
971.04          0
971.01          0
970.98          0
970.95          0
970.92  0       0
970.89          0
970.86          0
970.83          0
970.8           0
970.77          0
970.74          0
970.71          0
970.68  0       0
970.65          0
970.62          0
970.59          0
970.56          0
970.53          0
970.5           0
970.47          0
970.44          0
970.41          0
970.38          0
970.35          0
970.32          0
970.29  0       0
970.26          0
970.23          0
970.2           0
970.17          0
970.14          0
970.11          0
970.08          0
970.05  0       0
970.02          0
969.99          0
969.96          0
969.93          0
969.9           0
969.87          0
969.84          0
969.81          0
969.78          0
969.75          0
969.72          0
969.69          0
969.66  0       0
969.63          0
969.6           0
969.57          0
969.54          0
969.51          0
969.48          0
969.45          0
969.42          0
969.39          0
969.36          0
969.33          0
969.3           0
969.27  0       0
969.24          0
969.21          0
969.18          0
969.15          0
969.12          0
969.09          0
969.06          0
969.03  0       0
969             0
968.97          0
968.94          0
968.91          0
968.88          0
968.85          0
968.82          0
968.79          0
968.76          0
968.73          0
968.7           0
968.67          0
968.64  0       0
968.61          0
968.58          0
968.55          0
968.52          0
968.49          0
968.46          0
968.43          0
968.4   0       0
968.37          0
968.34          0
968.31          0
968.28          0
968.25  0       0
968.22          0
968.19          0
968.16          0
968.13          0
968.1           0
968.07          0
968.04          0
968.01  0       0
967.98          0
967.95          0
967.92          0
967.89          0
967.86          0
967.83          0
967.8           0
967.77          0
967.74          0
967.71          0
967.68          0
967.65          0
